File: data_examples/CV.mpt
EC-Lab ASCII FILE
Nb header lines : 53

Cyclic Voltammetry

Run on channel : 2 (SN 3021)
User :
Electrode connection : standard
Ewe ctrl range : min = -2.50 V, max = 2.50 V
Ewe,I filtering : 50 kHz
Channel : Grounded
Acquisition started on : 02/09/2022 11:50:33
Saved on :
	File : ele6_C02.mpr
	Directory : C:\Users\AGH\Desktop\Gisya\Standard procedures for memristors\4-dimethylaminopyridine+BiI3-Cu-ITO\4-aminopyrididne-Cu-ITO\
	Host : 10.156.202.9
Device : SP-300 (SN 0552)
Address : USB
EC-Lab for windows v11.20 (software)
Internet server v11.20 (firmware)
Command interpretor v11.20 (firmware)
Electrode material :
Initial state :
Electrolyte :
Comments :
Cable : standard
Electrode surface area : 0.001 cm
Characteristic mass : 0.001 g
Equivalent Weight : 0.000 g/eq.
Density : 0.000 g/cm3
Ei (V)              0.000
vs.                 Ref
dE/dt               500.000
dE/dt unit          mV/s
E1 (V)              1.500
vs.                 Ref
Step percent        50
N                   10
E range min (V)     -2.500
E range max (V)     2.500
I Range             Auto
I Range min         Unset
I Range max         Unset
I Range init        Unset
Bandwidth           9
E2 (V)              -1.500
vs.                 Ref
nc cycles           10
Reverse Scan        1
Ef (V)              0.000
vs.                 Ref

mode	ox/red	error	control changes	counter inc.	time/s	control/V	Ewe/V	<I>/mA	cycle number	(Q-Qo)/C	P/W
2	1	0	0	0	0.000000000000000E+000	0.0474147	0.0474489	0.280758	1	0.0000000E+000	1.33216e-05
2	1	0	1	0	0.4371	0.265992	0.266024	1.56867	1	0.000403029	0.000417303
2	1	0	1	0	0.8451	0.470023	0.470069	2.76355	1	0.00128725	0.00129906
2	1	0	1	0	1.2531	0.673955	0.67399	3.95034	1	0.00265723	0.00266249
2	1	0	1	0	1.6611	0.877987	0.878027	5.20082	1	0.00451844	0.00456646
2	1	0	1	0	2.0691	1.08202	1.08205	6.64477	1	0.00692506	0.00718998
2	1	0	1	0	2.4771	1.28595	1.28597	8.81676	1	0.0100454	0.0113381
2	1	0	1	0	2.8851	1.48998	1.48999	8.55686	1	0.0136626	0.0127496
2	0	0	0	0	3.2865	1.30934	1.30935	6.61207	1	0.0167131	0.00865753
2	0	0	0	0	3.6945	1.10541	1.10544	5.64314	1	0.0192041	0.00623817
2	0	0	0	0	4.1025	0.901379	0.901429	4.35138	1	0.0212244	0.00392246
2	0	0	0	0	4.5105	0.697347	0.697386	3.27277	1	0.0227776	0.00228238
2	0	0	0	0	4.9185	0.493416	0.493484	2.25434	1	0.023903	0.00111248
2	0	0	0	0	5.3265	0.289384	0.289436	1.29566	1	0.0246255	0.00037501
2	0	0	0	0	5.7645	0.070357	0.0703782	0.308627	1	0.0249767	2.17206e-05
2	0	0	0	0	6.1725	-0.133575	-0.133481	-0.574539	1	0.0249214	7.66903e-05
2	0	0	0	0	6.6105	-0.352602	-0.352557	-1.54814	1	0.0244627	0.000545807
2	0	0	0	0	7.0185	-0.556634	-0.556564	-2.87476	1	0.0235731	0.00159999
2	0	0	0	0	7.4265	-0.760665	-0.7606	-4.68924	1	0.0220583	0.00356664
2	0	0	0	0	7.8345	-0.964597	-0.964526	-6.86499	1	0.0197141	0.00662146
2	0	0	1	0	8.2427	-1.16873	-1.16866	-7.98101	1	0.0165675	0.00932713
2	0	0	1	0	8.6507	-1.37276	-1.37268	-8.24533	1	0.013328	0.0113182
2	1	0	1	1	9.0527	-1.42644	-1.42634	-7.86689	1	0.00998026	0.0112209
2	1	0	1	1	9.4607	-1.22241	-1.22233	-6.46012	1	0.00707759	0.00789642
2	1	0	0	1	9.8689	-1.01828	-1.01823	-5.34569	1	0.00468948	0.00544313
2	1	0	0	1	10.2769	-0.814348	-0.814278	-4.28208	1	0.00272466	0.0034868
2	1	0	0	1	10.6849	-0.610316	-0.61025	-3.12962	1	0.00121307	0.00190985
2	1	0	0	1	11.0929	-0.406284	-0.406211	-2.0382	1	0.000160011	0.000827939
2	1	0	0	1	11.5009	-0.202352	-0.202297	-0.995648	1	-0.000457363	0.000201416
2	1	0	1	1	11.9367	0.0155753	0.0156437	0.0766214	2	-0.000657549	1.19864e-06
2	1	0	1	1	12.3747	0.234602	0.234675	1.11836	2	-0.000394951	0.000262452
2	1	0	1	1	12.7827	0.438534	0.438596	2.09033	2	0.000259424	0.000916809
2	1	0	1	1	13.1907	0.642566	0.642637	3.46627	2	0.00137116	0.00222755
2	1	0	1	1	13.5987	0.846597	0.846654	4.89108	2	0.00306933	0.00414105
2	1	0	1	1	14.0067	1.05063	1.05069	7.17062	2	0.00551097	0.0075341
2	1	0	1	1	14.4147	1.25456	1.25462	6.44364	2	0.00834362	0.00808432
2	1	0	1	1	14.8227	1.45859	1.45863	6.85018	2	0.0110287	0.00999185
2	0	0	0	1	15.2249	1.34033	1.34037	5.6966	2	0.0135911	0.00763558
2	0	0	0	1	15.6329	1.1364	1.13644	4.58436	2	0.0156953	0.00520987
2	0	0	0	1	16.0409	0.932369	0.932429	3.55016	2	0.0173627	0.00331028
2	0	0	0	1	16.4489	0.728337	0.7284	2.6784	2	0.0186334	0.00195094
2	0	0	0	1	16.8569	0.524405	0.524458	1.85312	2	0.0195554	0.000971882
2	0	0	0	1	17.2649	0.320373	0.320424	1.09324	2	0.0201542	0.000350302
2	0	0	0	1	17.6729	0.116342	0.116395	0.383326	2	0.0204541	4.46174e-05
2	0	0	0	1	18.1109	-0.102585	-0.1025	-0.33363	2	0.0204654	3.41971e-05
2	0	0	0	1	18.5489	-0.321612	-0.321552	-1.64834	2	0.0201154	0.000530027
2	0	0	0	1	18.9569	-0.525644	-0.525595	-3.00306	2	0.0191763	0.00157839
2	0	0	0	1	19.3649	-0.729576	-0.729505	-4.69219	2	0.017627	0.00342297
2	0	0	0	1	19.7729	-0.933608	-0.933539	-6.47612	2	0.0153464	0.00604571
2	0	0	1	1	20.1811	-1.13774	-1.13765	-7.47579	2	0.0124235	0.00850485
2	0	0	1	1	20.5891	-1.34167	-1.34157	-7.86679	2	0.00936243	0.0105538
2	1	0	1	0	20.9911	-1.45743	-1.45733	-8.39781	2	0.00597731	0.0122384
2	1	0	1	0	21.3991	-1.2534	-1.25334	-7.05139	2	0.00280776	0.00883781
2	1	0	1	0	21.8071	-1.04947	-1.04939	-5.76847	2	0.000181703	0.0060534
2	1	0	0	0	22.2153	-0.845337	-0.845289	-4.60134	2	-0.00193149	0.00388946
2	1	0	0	0	22.6233	-0.641305	-0.64124	-3.42598	2	-0.00357085	0.00219687
2	1	0	0	0	23.0313	-0.437273	-0.437205	-2.27709	2	-0.00473401	0.000995556
2	1	0	0	0	23.4393	-0.233342	-0.233287	-1.18719	2	-0.00543874	0.000276956
2	1	0	0	0	23.8773	-0.0143147	-0.0142584	-0.0705489	2	-0.00571365	1.00591e-06
2	1	0	1	0	24.3731	0.233602	0.233664	1.17096	3	-0.00544516	0.00027361
2	1	0	1	0	24.7811	0.437534	0.437588	2.21678	3	-0.00476071	0.000970037
2	1	0	1	0	25.1891	0.641566	0.641606	3.86501	3	-0.00352932	0.00247981
2	1	0	1	0	25.5971	0.845598	0.845651	5.22806	3	-0.00164478	0.00442111
2	1	0	1	0	26.0051	1.04963	1.04967	5.67453	3	0.000720188	0.0059564
2	1	0	1	0	26.4131	1.25356	1.2536	5.20499	3	0.00296395	0.00652498
2	1	0	1	0	26.8211	1.45759	1.45764	6.00994	3	0.0052328	0.00876032
2	0	0	0	0	27.2233	1.34133	1.34139	5.10738	3	0.00752336	0.00685098
2	0	0	0	0	27.6313	1.1374	1.13748	4.08471	3	0.00939514	0.00464626
2	0	0	0	0	28.0393	0.933368	0.933428	3.17113	3	0.0108748	0.00296002
2	0	0	0	0	28.4473	0.729337	0.729408	2.35178	3	0.0119987	0.0017154
2	0	0	0	0	28.8553	0.525405	0.52547	1.61059	3	0.0128055	0.000846314
2	0	0	0	0	29.2633	0.321373	0.321424	0.944609	3	0.0133244	0.00030362
2	0	0	0	0	29.7013	0.102346	0.102397	0.288531	3	0.0135935	2.95447e-05
2	0	0	0	0	30.1093	-0.101586	-0.101506	-0.285101	3	0.0135942	2.89395e-05
2	0	0	0	0	30.5473	-0.320612	-0.320556	-1.58116	3	0.0132679	0.00050685
2	0	0	0	0	30.9553	-0.524644	-0.524578	-2.93538	3	0.0123542	0.00153984
2	0	0	0	0	31.3633	-0.728576	-0.728498	-4.53146	3	0.0108291	0.00330116
2	0	0	0	0	31.7713	-0.932608	-0.93256	-5.77562	3	0.00868336	0.00538611
2	0	0	1	0	32.1795	-1.13674	-1.13667	-6.46101	3	0.00622403	0.00734404
2	0	0	1	0	32.5875	-1.34067	-1.34057	-7.86298	3	0.00329954	0.0105408
2	1	0	1	1	32.9897	-1.45833	-1.45825	-8.39471	3	-6.34384e-05	0.0122416
2	1	0	1	1	33.3977	-1.2543	-1.25421	-7.11691	3	-0.00319703	0.00892607
2	1	0	1	1	33.8057	-1.05037	-1.0503	-5.7227	3	-0.0058183	0.00601056
2	1	0	0	1	34.2139	-0.846237	-0.846173	-4.52807	3	-0.00791683	0.00383153
2	1	0	0	1	34.6219	-0.642205	-0.642135	-3.4428	3	-0.00954632	0.00221074
2	1	0	0	1	35.0299	-0.438173	-0.438111	-2.29574	3	-0.0107152	0.00100579
2	1	0	0	1	35.4379	-0.234241	-0.234185	-1.20111	3	-0.0114272	0.000281282
2	1	0	0	1	35.8759	-0.0152144	-0.0151522	-0.0758064	3	-0.0117064	1.14864e-06
2	1	0	0	1	36.2815	0.187618	0.187601	0.947765	4	-0.0115299	0.000177802
2	1	0	0	1	36.7195	0.406545	0.406597	2.08938	4	-0.0108679	0.000849536
2	1	0	0	1	37.1275	0.610576	0.610639	3.40201	4	-0.00976108	0.0020774
2	1	0	0	1	37.5355	0.814608	0.814661	4.99124	4	-0.00804549	0.00406617
2	1	0	0	1	37.9435	1.01854	1.01859	5.4285	4	-0.00581549	0.00552943
2	1	0	0	1	38.3515	1.22257	1.22263	4.62737	4	-0.00380946	0.00565759
2	1	0	0	1	38.7595	1.4266	1.42665	5.34862	4	-0.00180201	0.0076306
2	0	0	1	1	39.1617	1.37242	1.3725	4.88753	4	0.000357632	0.00670815
2	0	0	1	1	39.5697	1.16839	1.16848	3.93531	4	0.00215583	0.00459831
2	0	0	1	1	39.9777	0.964358	0.964426	3.03384	4	0.00357362	0.00292592
2	0	0	1	1	40.3857	0.760426	0.760518	2.2514	4	0.00465098	0.00171223
2	0	0	1	1	40.7937	0.556395	0.556488	1.56017	4	0.0054269	0.000868216
2	0	0	1	1	41.2017	0.352363	0.352428	0.934565	4	0.00593607	0.000329367
2	0	0	1	1	41.6397	0.133336	0.133384	0.333598	4	0.0062114	4.44967e-05
2	0	0	1	1	42.0477	-0.0705959	-0.0705151	-0.174097	4	0.00624342	1.22765e-05
2	0	0	1	1	42.4557	-0.274628	-0.274519	-0.866212	4	0.00604934	0.000237792
2	0	0	1	1	42.8937	-0.493655	-0.493558	-2.69721	4	0.00523461	0.00133123
2	0	0	1	1	43.3017	-0.697587	-0.697491	-4.20954	4	0.00384493	0.00293611
2	0	0	1	1	43.7097	-0.901618	-0.901539	-5.76905	4	0.00178213	0.00520102
2	0	0	0	1	44.1179	-1.10575	-1.10567	-6.26765	4	-0.000585958	0.00692992
2	0	0	0	1	44.5259	-1.30968	-1.30959	-7.56773	4	-0.00340694	0.0099106
2	1	0	0	0	44.9281	-1.48932	-1.48923	-8.71986	4	-0.00669094	0.0129858
2	1	0	0	0	45.3361	-1.28529	-1.28519	-7.24062	4	-0.00993616	0.00930557
2	1	0	0	0	45.7441	-1.08136	-1.08129	-6.07728	4	-0.0126798	0.00657129
2	1	0	1	0	46.1523	-0.877227	-0.877169	-4.88631	4	-0.0149224	0.00428612
2	1	0	1	0	46.5603	-0.673195	-0.673115	-3.67514	4	-0.0166692	0.00247379
2	1	0	1	0	46.9683	-0.469263	-0.469189	-2.51006	4	-0.0179295	0.0011777
2	1	0	1	0	47.3763	-0.265231	-0.265169	-1.38969	4	-0.0187229	0.000368502
2	1	0	1	0	47.8143	-0.046204	-0.0461354	-0.236986	4	-0.0190787	1.09334e-05
2	1	0	1	0	48.2199	0.156628	0.156614	0.80347	5	-0.0189636	0.000125834
2	1	0	1	0	48.6579	0.375555	0.375609	1.9134	5	-0.0183719	0.000718691
2	1	0	1	0	49.0659	0.579587	0.579653	3.15727	5	-0.0173428	0.00183012
2	1	0	1	0	49.4739	0.783618	0.783662	4.61069	5	-0.0157328	0.00361322
2	1	0	1	0	49.8819	0.98755	0.98761	5.1814	5	-0.0137164	0.0051172
2	1	0	1	0	50.2899	1.19158	1.19165	4.06166	5	-0.0117958	0.00484008
2	1	0	1	0	50.6979	1.39561	1.39566	4.75131	5	-0.0100017	0.00663122
2	0	0	0	0	51.1001	1.40341	1.40345	4.81381	5	-0.00796627	0.00675591
2	0	0	0	0	51.5081	1.19938	1.19943	3.92112	5	-0.006182	0.00470312
2	0	0	0	0	51.9161	0.995348	0.995413	3.05574	5	-0.00476019	0.00304172
2	0	0	0	0	52.3241	0.791416	0.791493	2.27922	5	-0.00367632	0.00180399
2	0	0	0	0	52.7321	0.587384	0.587446	1.61789	5	-0.00288783	0.000950425
2	0	0	0	0	53.1401	0.383352	0.383404	0.992335	5	-0.00235892	0.000380465
2	0	0	0	0	53.5481	0.179421	0.179481	0.445575	5	-0.00206752	7.99722e-05
2	0	0	0	0	53.9861	-0.0396062	-0.039552	-0.0996352	5	-0.00199199	3.94078e-06
2	0	0	0	0	54.3941	-0.243638	-0.243535	-0.773414	5	-0.00214965	0.000188354
2	0	0	0	0	54.8321	-0.462665	-0.462618	-2.45832	5	-0.00285812	0.00113727
2	0	0	0	0	55.2401	-0.666597	-0.666525	-4.01127	5	-0.00417939	0.00267361
2	0	0	0	0	55.6481	-0.870629	-0.870562	-5.37679	5	-0.00611541	0.00468083
2	0	0	1	0	56.0563	-1.07476	-1.0747	-5.99784	5	-0.00842486	0.00644589
2	0	0	1	0	56.4643	-1.27869	-1.27861	-7.21446	5	-0.0111223	0.00922449
2	0	0	1	0	56.8723	-1.48272	-1.48263	-8.59419	5	-0.0143224	0.012742
2	1	0	1	1	57.2745	-1.31628	-1.3162	-7.3904	5	-0.0175607	0.00972724
2	1	0	1	1	57.6825	-1.11235	-1.11227	-6.24707	5	-0.0203261	0.00694844
2	1	0	0	1	58.0907	-0.908216	-0.908156	-5.03944	5	-0.0226279	0.0045766
2	1	0	0	1	58.4987	-0.704184	-0.704115	-3.84161	5	-0.0244403	0.00270494
2	1	0	0	1	58.9067	-0.500252	-0.500169	-2.69357	5	-0.0257745	0.00134724
2	1	0	0	1	59.3147	-0.296221	-0.296169	-1.56691	5	-0.0266423	0.000464072
2	1	0	0	1	59.7227	-0.0921887	-0.0921259	-0.479211	5	-0.0270584	4.41478e-05
2	1	0	0	1	59.9064	-0.000369326	-0.000323694	-0.000963396	5	-0.0271039	3.11845e-10