File: data_examples/SRDP_10ms.mpt
EC-Lab ASCII FILE
Nb header lines : 66

Chronoamperometry / Chronocoulometry

Run on channel : 1 (SN 3020)
User :
Electrode connection : standard
Ewe ctrl range : min = -10.00 V, max = 10.00 V
Ewe,I filtering : <None>
Channel : Grounded
Acquisition started on : 04/06/2022 13:48:24
Saved on :
	File : SRDP_2_1_01_srdp5x_cond1p5V_30xpulse-minus1V-read-plus200mV_t-100ms-dt-10-50-100-200-500ms-GISYA-EWE-materials_04_CA_C01.mpr
	Directory : C:\Users\AGH\Desktop\AnJ\2022-04-05-06_ITO_Ni[Me4Benzo]_Cu\
	Host : 192.109.209.128
Device : SP-300 (SN 0552)
Address : USB
EC-Lab for windows v11.20 (software)
Internet server v11.20 (firmware)
Command interpretor v11.20 (firmware)
Electrode material :
Initial state :
Electrolyte :
Comments :
Cable : standard
Electrode surface area : 0.001 cm²
Characteristic mass : 0.001 g
Equivalent Weight : 0.000 g/eq.
Density : 0.000 g/cm3
Ns                  0                   1                   2                   3                   4                   5                   6                   7
Ei (V)              0.000               0.200               0.000               -1.000              0.000               0.000               0.200               0.000
vs.                 Ref                 Ref                 Ref                 Ref                 Ref                 Ref                 Ref                 Ref
ti (h:m:s)          0:00:1.0000         0:00:1.0000         0:00:1.0000         0:00:0.1000         0:00:0.0100         0:00:0.0100         0:00:1.0000         0:00:0.1000
Imax                pass                pass                pass                pass                pass                pass                pass                pass
unit Imax           mA                  mA                  mA                  mA                  mA                  mA                  mA                  mA
Imin                pass                pass                pass                pass                pass                pass                pass                pass
unit Imin           mA                  mA                  mA                  mA                  mA                  mA                  mA                  mA
dQM                 0.000               0.000               0.000               0.000               0.000               0.000               0.000               0.000
unit dQM            mA.h                mA.h                mA.h                mA.h                mA.h                mA.h                mA.h                mA.h
record              I                   I                   I                   I                   I                   I                   I                   I
dI                  0.000               0.000               0.000               0.000               0.000               0.000               0.000               0.000
unit dI             µA                  µA                  µA                  µA                  µA                  µA                  µA                  µA
dQ                  0.000               0.000               0.000               0.000               0.000               0.000               0.000               0.000
unit dQ             mA.h                mA.h                mA.h                mA.h                mA.h                mA.h                mA.h                mA.h
dt (s)              0.5000              0.1000              0.1000              0.0050              0.0010              0.0010              0.1000              0.1000
dta (s)             0.1000              0.1000              0.1000              0.1000              0.1000              0.1000              0.1000              0.1000
E range min (V)     -10.000             -10.000             -10.000             -10.000             -10.000             -10.000             -10.000             -10.000
E range max (V)     10.000              10.000              10.000              10.000              10.000              10.000              10.000              10.000
I Range             100 mA              100 mA              100 mA              100 mA              100 mA              100 mA              100 mA              100 mA
I Range min         Unset               Unset               Unset               Unset               Unset               Unset               Unset               Unset
I Range max         Unset               Unset               Unset               Unset               Unset               Unset               Unset               Unset
I Range init        Unset               Unset               Unset               Unset               Unset               Unset               Unset               Unset
Bandwidth           5                   5                   5                   5                   5                   5                   5                   5
goto Ns'            0                   0                   0                   0                   3                   0                   0                   0
nc cycles           0                   0                   0                   0                   29                  0                   0                   0

Number of loops : 6
Loop 0 from point number 0 to 1008
Loop 1 from point number 1009 to 2017
Loop 2 from point number 2018 to 3026
Loop 3 from point number 3027 to 4035
Loop 4 from point number 4036 to 5044
Loop 5 from point number 5045 to 6053

mode	ox/red	error	control changes	Ns changes	counter inc.	Ns	time/s	control/V	Ewe/V	I/mA	dQ/C	(Q-Qo)/C	Q charge/discharge/mA.h	half cycle	Energy charge/W.h	Energy discharge/W.h	Capacitance charge/µF	Capacitance discharge/µF	Q discharge/mA.h	Q charge/mA.h	Capacity/mA.h	Efficiency/%	cycle number	P/W
2	1	0	0	0	0	0	149.812	2.54262e-05	0.000149774	0.011683	0.0000000E+000	0.0000000E+000	0.000000000000000E+000	0	0.000000000000000E+000	0.000000000000000E+000	0.000000000000000E+000	0.000000000000000E+000	0.000000000000000E+000	0.000000000000000E+000	0.000000000000000E+000	0	0.000000000000000E+000	1.74982e-09
2	0	0	1	0	1	3	153.172	-0.999851	-1.00004	-8.52071	-0.000262552	-0.000949083	-7.29312e-05	7	3.84814e-15	7.29208e-08	8141.48	1.37524e+06	7.29312e-05	0.000000000000000E+000	7.29312e-05	0	3	0.00852104
2	0	0	1	0	1	3	153.607	-0.999851	-0.999893	-8.19265	-0.000206845	-0.00427986	-5.74569e-05	15	1.88639e-15	5.74461e-08	1043.55	797033	5.74569e-05	0.000000000000000E+000	5.74569e-05	0	7	0.00819177
2	0	0	1	0	1	3	154.042	-0.999851	-0.999801	-7.8535	-0.000158669	-0.00744416	-4.40746e-05	23	1.88256e-15	4.40674e-08	1047.75	1.1884e+06	4.40746e-05	0.000000000000000E+000	4.40746e-05	0	11	0.00785194
2	0	0	1	0	1	3	154.477	-0.999851	-0.999847	-7.73549	-0.000117646	-0.0105218	-3.26793e-05	31	2.21907e-15	3.26725e-08	10413	716951	3.26793e-05	0.000000000000000E+000	3.26793e-05	0	15	0.00773431
2	0	0	1	0	1	3	154.912	-0.999851	-0.999794	-7.66369	-7.81559e-05	-0.0135655	-2.17099e-05	39	2.48613e-15	2.17062e-08	2215.27	1.2805e+06	2.17099e-05	0.000000000000000E+000	2.17099e-05	0	19	0.00766211
2	0	0	1	0	1	3	155.347	-0.999851	-0.999821	-7.63237	-3.96709e-05	-0.0165888	-1.10196e-05	47	1.73338e-15	1.10176e-08	0.000000000000000E+000	1.03994e+06	1.10196e-05	0.000000000000000E+000	1.10196e-05	0	23	0.007631
2	0	0	1	1	1	3	155.782	-0.999851	-0.999752	-7.55675	-1.51135e-06	-0.0195946	-4.2013e-07	55	3.32869e-15	4.20026e-10	1327.66	0.000000000000000E+000	4.2013e-07	0.000000000000000E+000	4.2013e-07	0	27	0.00755488
2	1	0	1	0	0	1	175.023	0.19994	0.199977	2.10306	0.000841917	0.000854175	0.000237271	62	4.67669e-08	0.000000000000000E+000	4272.53	0.000000000000000E+000	0.000000000000000E+000	0.000237271	0.000237271	0	31	0.000420563
2	0	0	1	0	1	3	177.018	-0.999851	-0.999855	-9.28836	-0.000607842	-0.00139758	-0.000168845	69	2.50538e-15	1.68824e-07	2271.58	4.08569e+06	0.000168845	0.000000000000000E+000	0.000168845	0	34	0.00928702
2	0	0	1	0	1	3	177.453	-0.999851	-0.99984	-8.54974	-0.000516928	-0.00490753	-0.000143591	77	1.21126e-15	1.43575e-07	1633.81	1.93585e+07	0.000143591	0.000000000000000E+000	0.000143591	0	38	0.00854837
2	0	0	1	0	1	3	177.888	-0.999851	-0.999794	-8.27896	-0.000457127	-0.00821445	-0.00012698	85	1.00765e-16	1.26966e-07	3443.89	4.27975e+06	0.00012698	0.000000000000000E+000	0.00012698	0	42	0.00827725
2	0	0	1	0	1	3	178.323	-0.999851	-0.999866	-8.16286	-0.00040945	-0.0114531	-0.000113736	93	4.06803e-16	1.13719e-07	2346.67	7.65822e+06	0.000113736	0.000000000000000E+000	0.000113736	0	46	0.00816176
2	0	0	1	0	1	3	178.758	-0.999851	-0.999924	-8.2106	-0.000371266	-0.01469	-0.00010313	101	1.78298e-15	1.0312e-07	3813.36	4.05259e+06	0.00010313	0.000000000000000E+000	0.00010313	0	50	0.00820997
2	0	0	1	0	1	3	179.193	-0.999851	-0.999924	-8.13154	-0.000327786	-0.0179211	-9.10518e-05	109	1.44707e-15	9.10442e-08	3471	8.59272e+06	9.10518e-05	0.000000000000000E+000	9.10518e-05	0	54	0.00813092
2	0	0	1	0	1	3	179.628	-0.999851	-0.999874	-8.04408	-0.000283195	-0.0211199	-7.86657e-05	117	2.07889e-15	7.86546e-08	1837.59	3.90728e+06	7.86657e-05	0.000000000000000E+000	7.86657e-05	0	58	0.00804307
2	1	0	0	1	0	2	199.434	2.54262e-05	6.58213e-05	0.0139746	2.79491e-09	0.00176862	0.000491283	124	9.74961e-08	0.000000000000000E+000	2.72629e+07	0.000000000000000E+000	0.000000000000000E+000	0.000491283	0.000491283	0	62	9.19823e-10
2	0	0	1	0	1	3	200.863	-0.999851	-1.00001	-9.42165	-0.000953491	-0.00186659	-0.000264859	131	-8.06946e-17	2.64833e-07	1087.01	4.80677e+06	0.000264859	0.000000000000000E+000	0.000264859	0	65	0.00942172
2	0	0	1	0	1	3	201.299	-0.999851	-0.999824	-7.88749	-0.000755689	-0.00525097	-0.000209914	139	1.42409e-15	2.09886e-07	36852.2	6.60331e+07	0.000209914	0.000000000000000E+000	0.000209914	0	69	0.00788611
2	0	0	1	0	1	3	201.734	-0.999851	-0.999981	-7.59762	-0.000688167	-0.00830083	-0.000191158	147	-8.51129e-17	1.91142e-07	1196.66	5.01108e+06	0.000191158	0.000000000000000E+000	0.000191158	0	73	0.00759747
2	0	0	1	0	1	3	202.169	-0.999851	-0.999905	-7.47426	-0.000637569	-0.0112784	-0.000177102	155	1.80663e-15	1.7708e-07	1965.28	8.35674e+06	0.000177102	0.000000000000000E+000	0.000177102	0	77	0.00747355
2	0	0	1	0	1	3	202.604	-0.999851	-0.999878	-7.39177	-0.000593625	-0.014215	-0.000164896	163	2.14796e-15	1.64873e-07	976.219	5.9852e+06	0.000164896	0.000000000000000E+000	0.000164896	0	81	0.00739086
2	0	0	1	0	1	3	203.039	-0.999851	-0.999866	-7.3509	-0.000552797	-0.0171253	-0.000153554	171	6.38027e-16	1.53534e-07	1619.64	7.24561e+07	0.000153554	0.000000000000000E+000	0.000153554	0	85	0.00734992
2	0	0	1	0	1	3	203.474	-0.999851	-0.999889	-7.29629	-0.000512488	-0.0200199	-0.000142358	179	2.72253e-15	1.4234e-07	1004.11	1.22133e+07	0.000142358	0.000000000000000E+000	0.000142358	0	89	0.00729548
2	1	0	0	0	0	2	223.944	2.54262e-05	6.20051e-05	0.0242863	8.60913e-06	0.00188214	0.000522817	186	1.03436e-07	0.000000000000000E+000	1.54131e+07	0.000000000000000E+000	0.000000000000000E+000	0.000522817	0.000522817	0	93	1.50587e-09
2	1	0	0	0	1	4	224.68	2.54262e-05	6.96372e-05	0.0147384	7.91566e-08	-0.0018466	2.19896e-08	194	1.86189e-15	0.000000000000000E+000	2963.52	0.000000000000000E+000	0.000000000000000E+000	2.19896e-08	2.19896e-08	0	97	1.02634e-09
2	1	0	0	0	1	4	225.119	2.54262e-05	-1.81315e-05	0.0265778	4.8836e-08	-0.00569413	1.35818e-08	202	1.08944e-15	0.000000000000000E+000	376.849	0.000000000000000E+000	0.000000000000000E+000	1.35818e-08	1.35818e-08	0	101	4.81895e-10
2	1	0	0	0	1	4	225.558	2.54262e-05	0.000203199	-0.00703085	4.44094e-08	-0.00908937	1.21589e-08	210	8.12163e-16	0.000000000000000E+000	208.556	0.000000000000000E+000	0.000000000000000E+000	1.21589e-08	1.21589e-08	0	105	1.42866e-09
2	1	0	0	0	1	4	225.997	2.54262e-05	-2.57638e-05	0.0158841	3.35666e-08	-0.0121168	9.31323e-09	218	3.76077e-16	0.000000000000000E+000	1757.19	0.000000000000000E+000	0.000000000000000E+000	9.31323e-09	9.31323e-09	0	109	4.09235e-10
2	1	0	0	0	1	4	226.436	2.54262e-05	5.05572e-05	0.012065	2.16544e-08	-0.0150657	6.20882e-09	226	1.32253e-16	0.000000000000000E+000	183.041	0.000000000000000E+000	0.000000000000000E+000	6.20882e-09	6.20882e-09	0	113	6.09971e-10
2	1	0	0	0	1	4	226.875	2.54262e-05	0.00013451	0.0113011	8.13814e-09	-0.0180182	2.58701e-09	234	1.7028e-16	0.000000000000000E+000	54.2344	0.000000000000000E+000	0.000000000000000E+000	2.58701e-09	2.58701e-09	0	117	1.52011e-09
2	1	0	0	1	1	4	227.314	2.54262e-05	2.38449e-05	0.00748195	1.49639e-09	-0.0209638	5.17401e-10	242	1.23374e-17	0.000000000000000E+000	0.000000000000000E+000	0.000000000000000E+000	0.000000000000000E+000	5.17401e-10	5.17401e-10	0	121	1.78406e-10
2	0	0	1	0	0	3	248.07	-0.999851	-0.999908	-9.67639	-0.00014408	0.00159902	-4.00224e-05	249	9.53305e-08	4.00173e-08	2.17515e+07	662629	4.00224e-05	0.000000000000000E+000	4.00224e-05	0	124	0.0096755
2	0	0	1	0	0	3	248.505	-0.999851	-0.999878	-8.84152	-9.04569e-05	-0.00203294	-2.5127e-05	257	2.58935e-15	2.51242e-08	1749.57	817682	2.5127e-05	0.000000000000000E+000	2.5127e-05	0	128	0.00884044
2	0	0	1	0	0	3	248.94	-0.999851	-0.999924	-7.82333	-4.06719e-05	-0.00533337	-1.12977e-05	265	2.15909e-15	1.12968e-08	1966.79	380569	1.12977e-05	0.000000000000000E+000	1.12977e-05	0	132	0.00782273
2	0	0	1	1	0	3	249.375	-0.999851	-0.999901	-7.37076	-1.47415e-06	-0.00834009	-4.09523e-07	273	4.77073e-15	4.09483e-10	3880.48	0.000000000000000E+000	4.09523e-07	0.000000000000000E+000	4.09523e-07	0	136	0.00737003
2	1	0	0	0	1	4	249.815	2.54262e-05	3.5293e-05	0.0135926	1.34704e-07	-0.0112658	3.75116e-08	280	3.14333e-15	0.000000000000000E+000	956.43	0.000000000000000E+000	0.000000000000000E+000	3.75116e-08	3.75116e-08	0	140	4.79724e-10
2	1	0	0	0	1	4	250.254	2.54262e-05	5.43732e-05	0.0158841	1.21691e-07	-0.0141536	3.38898e-08	288	2.58705e-15	0.000000000000000E+000	3996.4	0.000000000000000E+000	0.000000000000000E+000	3.38898e-08	3.38898e-08	0	144	8.63671e-10
2	1	0	0	0	1	4	250.693	2.54262e-05	0.000111614	0.0082458	1.03057e-07	-0.0171311	2.84571e-08	296	3.24136e-15	0.000000000000000E+000	1789.73	0.000000000000000E+000	0.000000000000000E+000	2.84571e-08	2.84571e-08	0	148	9.20345e-10
2	1	0	0	0	1	4	251.132	2.54262e-05	3.5293e-05	0.0151203	9.74086e-08	-0.0200623	2.69049e-08	304	1.90912e-15	0.000000000000000E+000	793.178	0.000000000000000E+000	0.000000000000000E+000	2.69049e-08	2.69049e-08	0	152	5.3364e-10
2	0	0	1	0	0	3	271.916	-0.999851	-0.999752	-10.1916	-0.00051533	0.00160584	-0.000143147	311	1.16291e-07	1.43127e-07	2.41677e+07	2.87427e+06	0.000143147	0.000000000000000E+000	0.000143147	0	155	0.0101891
2	0	0	1	0	0	3	272.351	-0.999851	-0.999897	-9.90898	-0.000448239	-0.00234275	-0.000124511	319	2.80681e-15	1.24496e-07	1301.62	1.17503e+08	0.000124511	0.000000000000000E+000	0.000124511	0	159	0.00990796
2	0	0	1	0	0	3	272.786	-0.999851	-0.999996	-9.81999	-0.000395076	-0.00624252	-0.000109743	327	1.77307e-15	1.09734e-07	1010.11	2.15694e+06	0.000109743	0.000000000000000E+000	0.000109743	0	163	0.00981995
2	0	0	1	0	0	3	273.221	-0.999851	-0.999802	-9.73559	-0.000342792	-0.010104	-9.522e-05	335	2.93033e-15	9.52091e-08	1525.34	1.66313e+06	9.522e-05	0.000000000000000E+000	9.522e-05	0	167	0.00973366
2	0	0	1	0	0	3	273.656	-0.999851	-0.999958	-9.65653	-0.000291654	-0.0139308	-8.1015e-05	343	3.80921e-15	8.10071e-08	758.692	1.19403e+06	8.1015e-05	0.000000000000000E+000	8.1015e-05	0	171	0.00965613
2	0	0	1	0	0	3	274.091	-0.999851	-0.999943	-9.49727	-0.000239629	-0.017712	-6.65632e-05	351	2.10059e-15	6.65557e-08	638.98	3.69511e+06	6.65632e-05	0.000000000000000E+000	6.65632e-05	0	175	0.00949673
2	0	0	1	0	0	3	274.526	-0.999851	-0.999954	-9.31395	-0.000188365	-0.0214362	-5.23238e-05	359	3.96739e-15	5.23163e-08	4230.27	4.94562e+06	5.23238e-05	0.000000000000000E+000	5.23238e-05	0	179	0.00931352
2	0	0	1	0	0	3	274.961	-0.999851	-0.999916	-9.12681	-0.000138772	-0.0250803	-3.85474e-05	367	4.19349e-15	3.85445e-08	1952.44	1.13681e+06	3.85474e-05	0.000000000000000E+000	3.85474e-05	0	183	0.00912605
2	1	0	0	0	0	7	276.276	2.54262e-05	0.000184119	0.00862771	1.45421e-06	-0.0250221	0.00047769	370	9.54379e-08	0.000000000000000E+000	1.87769e+07	0.000000000000000E+000	0.000000000000000E+000	0.00047769	0.00047769	0	185	1.58852e-09