File: data_examples/SRDP_200ms.mpt
EC-Lab ASCII FILE
Nb header lines : 66

Chronoamperometry / Chronocoulometry

Run on channel : 1 (SN 3020)
User :
Electrode connection : standard
Ewe ctrl range : min = -10.00 V, max = 10.00 V
Ewe,I filtering : <None>
Channel : Grounded
Acquisition started on : 04/06/2022 13:48:24
Saved on :
	File : SRDP_2_1_01_srdp5x_cond1p5V_30xpulse-minus1V-read-plus200mV_t-100ms-dt-10-50-100-200-500ms-GISYA-EWE-materials_13_CA_C01.mpr
	Directory : C:\Users\AGH\Desktop\AnJ\2022-04-05-06_ITO_Ni[Me4Benzo]_Cu\
	Host : 192.109.209.128
Device : SP-300 (SN 0552)
Address : USB
EC-Lab for windows v11.20 (software)
Internet server v11.20 (firmware)
Command interpretor v11.20 (firmware)
Electrode material :
Initial state :
Electrolyte :
Comments :
Cable : standard
Electrode surface area : 0.001 cm²
Characteristic mass : 0.001 g
Equivalent Weight : 0.000 g/eq.
Density : 0.000 g/cm3
Ns                  0                   1                   2                   3                   4                   5                   6                   7
Ei (V)              0.000               0.200               0.000               -1.000              0.000               0.000               0.200               0.000
vs.                 Ref                 Ref                 Ref                 Ref                 Ref                 Ref                 Ref                 Ref
ti (h:m:s)          0:00:1.0000         0:00:1.0000         0:00:1.0000         0:00:0.1000         0:00:0.2000         0:00:0.0100         0:00:1.0000         0:00:0.1000
Imax                pass                pass                pass                pass                pass                pass                pass                pass
unit Imax           mA                  mA                  mA                  mA                  mA                  mA                  mA                  mA
Imin                pass                pass                pass                pass                pass                pass                pass                pass
unit Imin           mA                  mA                  mA                  mA                  mA                  mA                  mA                  mA
dQM                 0.000               0.000               0.000               0.000               0.000               0.000               0.000               0.000
unit dQM            mA.h                mA.h                mA.h                mA.h                mA.h                mA.h                mA.h                mA.h
record              I                   I                   I                   I                   I                   I                   I                   I
dI                  0.000               0.000               0.000               0.000               0.000               0.000               0.000               0.000
unit dI             µA                  µA                  µA                  µA                  µA                  µA                  µA                  µA
dQ                  0.000               0.000               0.000               0.000               0.000               0.000               0.000               0.000
unit dQ             mA.h                mA.h                mA.h                mA.h                mA.h                mA.h                mA.h                mA.h
dt (s)              0.5000              0.1000              0.1000              0.0050              0.0100              0.0010              0.1000              0.1000
dta (s)             0.1000              0.1000              0.1000              0.1000              0.1000              0.1000              0.1000              0.1000
E range min (V)     -10.000             -10.000             -10.000             -10.000             -10.000             -10.000             -10.000             -10.000
E range max (V)     10.000              10.000              10.000              10.000              10.000              10.000              10.000              10.000
I Range             100 mA              100 mA              100 mA              100 mA              100 mA              100 mA              100 mA              100 mA
I Range min         Unset               Unset               Unset               Unset               Unset               Unset               Unset               Unset
I Range max         Unset               Unset               Unset               Unset               Unset               Unset               Unset               Unset
I Range init        Unset               Unset               Unset               Unset               Unset               Unset               Unset               Unset
Bandwidth           5                   5                   5                   5                   5                   5                   5                   5
goto Ns'            0                   0                   0                   0                   3                   0                   0                   0
nc cycles           0                   0                   0                   0                   29                  0                   0                   0

Number of loops : 6
Loop 0 from point number 0 to 1308
Loop 1 from point number 1309 to 2617
Loop 2 from point number 2618 to 3926
Loop 3 from point number 3927 to 5235
Loop 4 from point number 5236 to 6544
Loop 5 from point number 6545 to 7853

mode	ox/red	error	control changes	Ns changes	counter inc.	Ns	time/s	control/V	Ewe/V	I/mA	dQ/C	(Q-Qo)/C	Q charge/discharge/mA.h	half cycle	Energy charge/W.h	Energy discharge/W.h	Capacitance charge/µF	Capacitance discharge/µF	Q discharge/mA.h	Q charge/mA.h	Capacity/mA.h	Efficiency/%	cycle number	P/W
2	1	0	0	0	0	0	601.808	2.54262e-05	0.000126878	0.00480855	0.0000000E+000	0.0000000E+000	0.000000000000000E+000	0	0.000000000000000E+000	0.000000000000000E+000	0.000000000000000E+000	0.000000000000000E+000	0.000000000000000E+000	0.000000000000000E+000	0.000000000000000E+000	0	0.000000000000000E+000	6.10099e-10
2	0	0	1	0	1	3	605.788	-0.999851	-0.999851	-7.07592	-0.000568176	-0.00140355	-0.000157827	7	1.13389e-14	1.5781e-07	9247.97	1.06389e+07	0.000157827	0.000000000000000E+000	0.000157827	0	3	0.00707487
2	0	0	1	0	1	3	606.983	-0.999851	-1	-7.01252	-0.000528076	-0.00417577	-0.000146688	15	1.49841e-14	1.46669e-07	15195.8	1.38001e+07	0.000146688	0.000000000000000E+000	0.000146688	0	7	0.00701255
2	0	0	1	0	1	3	608.178	-0.999851	-0.999924	-6.93309	-0.000487246	-0.00691895	-0.000135346	23	1.84392e-14	1.35339e-07	567515	487.214	0.000135346	0.000000000000000E+000	0.000135346	0	11	0.00693256
2	0	0	1	0	1	3	609.373	-0.999851	-0.999931	-7.03009	-0.000457023	-0.00967847	-0.000126951	31	1.88866e-14	1.26936e-07	140698	2.54906e+06	0.000126951	0.000000000000000E+000	0.000126951	0	15	0.00702961
2	0	0	1	0	1	3	610.568	-0.999851	-0.999908	-6.96058	-0.000419479	-0.0124305	-0.000116522	39	2.97975e-14	1.16513e-07	17442.3	1.99935e+06	0.000116522	0.000000000000000E+000	0.000116522	0	19	0.00695995
2	0	0	1	0	1	3	611.763	-0.999851	-0.999916	-6.98006	-0.000383997	-0.0151698	-0.000106666	47	2.28372e-14	1.06652e-07	42296.6	2.51656e+06	0.000106666	0.000000000000000E+000	0.000106666	0	23	0.00697947
2	0	0	1	0	1	3	612.958	-0.999851	-0.999878	-6.99801	-0.00035142	-0.0179286	-9.76166e-05	55	2.61374e-14	9.76071e-08	9780.26	1.53139e+07	9.76166e-05	0.000000000000000E+000	9.76166e-05	0	27	0.00699716
2	0	0	1	0	0	3	634.328	-0.999851	-0.999782	-10.297	-0.000105179	0.00195058	-2.92165e-05	63	1.12906e-07	2.92113e-08	1.07744e+08	1.37861e+07	2.92165e-05	0.000000000000000E+000	2.92165e-05	0	31	0.0102948
2	0	0	1	0	0	3	635.523	-0.999851	-0.999874	-9.61681	-4.99782e-05	-0.00197863	-1.38829e-05	71	3.41668e-14	1.38811e-08	34237.1	769971	1.38829e-05	0.000000000000000E+000	1.38829e-05	0	35	0.0096156
2	0	0	1	1	0	3	636.718	-0.999851	-0.999889	-8.21174	-1.64235e-06	-0.00556479	-4.56219e-07	79	5.71896e-14	4.56168e-10	40472.4	0.000000000000000E+000	4.56219e-07	0.000000000000000E+000	4.56219e-07	0	39	0.00821083
2	1	0	0	0	1	4	637.918	2.54262e-05	-1.04995e-05	0.00977346	2.31904e-06	-0.00875727	6.44165e-07	86	4.47957e-14	0.000000000000000E+000	202563	0.000000000000000E+000	0.000000000000000E+000	6.44165e-07	6.44165e-07	0	43	1.02617e-10
2	1	0	0	0	1	4	639.108	2.54262e-05	2.00287e-05	0.0128288	2.17934e-06	-0.0118824	6.0536e-07	94	3.68898e-14	0.000000000000000E+000	33593.4	0.000000000000000E+000	0.000000000000000E+000	6.0536e-07	6.0536e-07	0	47	2.56945e-10
2	1	0	0	0	1	4	640.298	2.54262e-05	0.000157406	0.0101554	2.00843e-06	-0.0149603	5.58017e-07	102	3.20244e-14	0.000000000000000E+000	13160.7	0.000000000000000E+000	0.000000000000000E+000	5.58017e-07	5.58017e-07	0	51	1.59852e-09
2	1	0	0	0	1	4	641.488	2.54262e-05	-2.95797e-05	0.00939155	1.98257e-06	-0.0179964	5.51033e-07	110	8.81332e-15	0.000000000000000E+000	34655.7	0.000000000000000E+000	0.000000000000000E+000	5.51033e-07	5.51033e-07	0	55	2.77799e-10
2	1	0	0	0	1	4	642.678	2.54262e-05	4.76468e-06	0.0113011	1.84359e-06	-0.0210077	5.1171e-07	118	2.406e-14	0.000000000000000E+000	80456.9	0.000000000000000E+000	0.000000000000000E+000	5.1171e-07	5.1171e-07	0	59	5.38463e-11
2	1	0	0	0	0	4	664.009	2.54262e-05	0.000119246	0.0197033	9.29342e-07	0.00111504	2.58151e-07	126	2.02716e-14	0.000000000000000E+000	5939.91	0.000000000000000E+000	0.000000000000000E+000	2.58151e-07	2.58151e-07	0	63	2.34953e-09
2	1	0	0	0	0	4	665.199	2.54262e-05	0.000123062	0.0109192	8.18469e-07	-0.00199363	2.27333e-07	134	1.96697e-14	0.000000000000000E+000	5230.81	0.000000000000000E+000	0.000000000000000E+000	2.27333e-07	2.27333e-07	0	67	1.34374e-09
2	1	0	0	0	0	4	666.389	2.54262e-05	8.10855e-05	0.0231405	7.16152e-07	-0.00495267	1.98941e-07	142	8.04693e-15	0.000000000000000E+000	11729.9	0.000000000000000E+000	0.000000000000000E+000	1.98941e-07	1.98941e-07	0	71	1.87636e-09
2	1	0	0	0	0	4	667.579	2.54262e-05	-9.06363e-05	0.0155022	5.75031e-07	-0.00783816	1.59618e-07	150	-5.94924e-16	0.000000000000000E+000	150578	0.000000000000000E+000	0.000000000000000E+000	1.59618e-07	1.59618e-07	0	75	1.40506e-09
2	1	0	0	0	0	4	668.769	2.54262e-05	9.25336e-05	0.0124469	4.40556e-07	-0.0107007	1.22624e-07	158	1.30429e-14	0.000000000000000E+000	16526.1	0.000000000000000E+000	0.000000000000000E+000	1.22624e-07	1.22624e-07	0	79	1.15175e-09
2	1	0	0	0	0	4	669.959	2.54262e-05	9.63497e-05	0.00404473	3.00811e-07	-0.0136001	8.35603e-08	166	9.58316e-15	0.000000000000000E+000	8758.88	0.000000000000000E+000	0.000000000000000E+000	8.35603e-08	8.35603e-08	0	83	3.89708e-10
2	1	0	0	0	0	4	671.149	2.54262e-05	1.62128e-05	0.0151203	2.33019e-07	-0.0164673	6.46752e-08	174	2.90452e-15	0.000000000000000E+000	12202.7	0.000000000000000E+000	0.000000000000000E+000	6.46752e-08	6.46752e-08	0	87	2.45142e-10
2	1	0	0	0	0	4	672.339	2.54262e-05	8.87176e-05	0.00710006	9.80089e-08	-0.0193039	2.74223e-08	182	2.41112e-15	0.000000000000000E+000	2351.8	0.000000000000000E+000	0.000000000000000E+000	2.74223e-08	2.74223e-08	0	91	6.299e-10
2	0	0	1	0	1	3	693.71	-0.999851	-0.999824	-9.33916	-0.000663109	0.000445924	-0.000184197	189	4.03617e-14	1.84181e-07	167064	9.64884e+06	0.000184197	0.000000000000000E+000	0.000184197	0	94	0.00933752
2	0	0	1	0	1	3	694.905	-0.999851	-0.999878	-8.73879	-0.000571683	-0.00310017	-0.000158801	197	4.3203e-14	1.5878e-07	13056.9	6.2443e+06	0.000158801	0.000000000000000E+000	0.000158801	0	98	0.00873772
2	0	0	1	0	1	3	696.1	-0.999851	-0.999836	-8.29729	-0.000499378	-0.00644611	-0.000138716	205	4.98545e-14	1.38698e-07	89655.1	1.87013e+07	0.000138716	0.000000000000000E+000	0.000138716	0	102	0.00829593
2	0	0	1	0	1	3	697.295	-0.999851	-0.999905	-8.56692	-0.000478576	-0.00971656	-0.000132938	213	6.91772e-14	1.32922e-07	340333	2.66839e+06	0.000132938	0.000000000000000E+000	0.000132938	0	106	0.00856611
2	0	0	1	0	1	3	698.49	-0.999851	-0.999893	-8.04981	-0.000404621	-0.012954	-0.000112395	221	3.31782e-14	1.12379e-07	645034	0.000000000000000E+000	0.000112395	0.000000000000000E+000	0.000112395	0	110	0.00804895
2	0	0	1	0	1	3	699.685	-0.999851	-0.999912	-7.95242	-0.000359574	-0.0161053	-9.98818e-05	229	2.36316e-14	9.98725e-08	59416.1	3.4891e+06	9.98818e-05	0.000000000000000E+000	9.98818e-05	0	114	0.00795172
2	0	0	1	0	1	3	700.88	-0.999851	-0.999897	-7.87413	-0.000316508	-0.0192197	-8.79189e-05	237	3.96202e-14	8.79092e-08	15546.3	5.18567e+06	8.79189e-05	0.000000000000000E+000	8.79189e-05	0	118	0.00787332
2	0	0	1	0	1	3	702.075	-0.999851	-0.999908	-7.82371	-0.000275486	-0.0223127	-7.65237e-05	245	4.18552e-14	7.65134e-08	26952.1	3.28258e+06	7.65237e-05	0.000000000000000E+000	7.65237e-05	0	122	0.007823
2	1	0	0	0	1	4	723.451	2.54262e-05	-2.95797e-05	0.0135926	2.3541e-06	0.000173999	6.53919e-07	252	5.31883e-14	-3.91399e-17	56105.9	0.000000000000000E+000	0.000000000000000E+000	6.53919e-07	6.53919e-07	0	126	4.02066e-10
2	1	0	0	0	1	4	724.641	2.54262e-05	9.63495e-05	0.0143565	2.20042e-06	-0.00306103	6.11245e-07	260	2.52017e-14	0.000000000000000E+000	19221.3	0.000000000000000E+000	0.000000000000000E+000	6.11245e-07	6.11245e-07	0	130	1.38324e-09
2	1	0	0	0	1	4	725.831	2.54262e-05	-5.6292e-05	0.00977346	2.14768e-06	-0.00618773	5.96564e-07	268	1.58805e-14	0.000000000000000E+000	12234.6	0.000000000000000E+000	0.000000000000000E+000	5.96564e-07	5.96564e-07	0	134	5.50168e-10
2	1	0	0	0	1	4	727.021	2.54262e-05	-2.86743e-06	0.0158841	1.95721e-06	-0.00928552	5.4353e-07	276	4.49283e-14	0.000000000000000E+000	46614.5	0.000000000000000E+000	0.000000000000000E+000	5.4353e-07	5.4353e-07	0	138	4.55467e-11
2	1	0	0	0	1	4	728.211	2.54262e-05	5.0557e-05	0.000607462	1.87735e-06	-0.0123438	5.21541e-07	284	3.86544e-14	0.000000000000000E+000	98403.6	0.000000000000000E+000	0.000000000000000E+000	5.21541e-07	5.21541e-07	0	142	3.07115e-11
2	1	0	0	0	1	4	729.401	2.54262e-05	0.000100166	0.00900964	1.67016e-06	-0.0153687	4.6385e-07	292	2.29652e-14	0.000000000000000E+000	13260.3	0.000000000000000E+000	0.000000000000000E+000	4.6385e-07	4.6385e-07	0	146	9.02457e-10
2	1	0	0	0	1	4	730.591	2.54262e-05	-5.24761e-05	0.0185575	1.61658e-06	-0.0183727	4.49104e-07	300	1.80241e-14	0.000000000000000E+000	12838.7	0.000000000000000E+000	0.000000000000000E+000	4.49104e-07	4.49104e-07	0	150	9.73826e-10
2	1	0	0	0	1	4	731.781	2.54262e-05	7.72693e-05	0.0109192	1.55466e-06	-0.0213647	4.3203e-07	308	3.2666e-14	0.000000000000000E+000	9478.41	0.000000000000000E+000	0.000000000000000E+000	4.3203e-07	4.3203e-07	0	154	8.4372e-10
2	1	0	0	0	0	4	753.112	2.54262e-05	3.91089e-05	0.0155022	6.45686e-07	-0.000693363	1.79344e-07	316	6.20995e-15	0.000000000000000E+000	13014.7	0.000000000000000E+000	0.000000000000000E+000	1.79344e-07	1.79344e-07	0	158	6.06275e-10
2	1	0	0	0	0	4	754.302	2.54262e-05	2.76609e-05	0.0105373	5.16023e-07	-0.00417067	1.4332e-07	324	7.87517e-16	0.000000000000000E+000	5200.25	0.000000000000000E+000	0.000000000000000E+000	1.4332e-07	1.4332e-07	0	162	2.91471e-10
2	1	0	0	0	0	4	755.492	2.54262e-05	8.49015e-05	0.00633622	3.88499e-07	-0.00752253	1.07878e-07	332	5.83211e-15	0.000000000000000E+000	12721.4	0.000000000000000E+000	0.000000000000000E+000	1.07878e-07	1.07878e-07	0	166	5.37955e-10
2	1	0	0	0	0	4	756.682	2.54262e-05	-4.86599e-05	0.0185575	2.48066e-07	-0.0108059	6.88144e-08	340	-3.93293e-15	0.000000000000000E+000	1352.47	0.000000000000000E+000	0.000000000000000E+000	6.88144e-08	6.88144e-08	0	170	9.03009e-10
2	1	0	0	0	0	4	757.872	2.54262e-05	-0.000109717	0.0170299	1.14202e-07	-0.0140482	3.18202e-08	348	-3.35201e-15	0.000000000000000E+000	638.697	0.000000000000000E+000	0.000000000000000E+000	3.18202e-08	3.18202e-08	0	174	1.86846e-09
2	1	0	0	1	0	4	759.062	2.54262e-05	-0.000189853	0.0185575	3.71151e-09	-0.0172548	1.0348e-09	356	-1.96461e-16	0.000000000000000E+000	0.000000000000000E+000	0.000000000000000E+000	0.000000000000000E+000	1.0348e-09	1.0348e-09	0	178	3.52322e-09
2	0	0	1	0	0	3	760.261	-0.999851	-0.999954	-7.88864	-0.000790056	-0.0204207	-0.00021946	363	3.17956e-14	2.19442e-07	61209.2	7.13782e+06	0.00021946	0.000000000000000E+000	0.00021946	0	181	0.00788828
2	1	0	1	0	0	6	762.172	0.19994	0.199992	1.46182	0.00117281	-0.0215893	0.000326483	370	6.51577e-08	0.000000000000000E+000	5878.42	0.000000000000000E+000	0.000000000000000E+000	0.000326483	0.000326483	0	185	0.000292352
2	1	0	0	0	0	7	762.471	2.54262e-05	2.38449e-05	0.012065	1.14524e-06	-0.0212949	0.000408269	370	8.14535e-08	0.000000000000000E+000	5.50224e+07	0.000000000000000E+000	0.000000000000000E+000	0.000408269	0.000408269	0	185	2.87688e-10