File: data_examples/SRDP_100ms.mpt
EC-Lab ASCII FILE
Nb header lines : 66

Chronoamperometry / Chronocoulometry

Run on channel : 1 (SN 3020)
User :
Electrode connection : standard
Ewe ctrl range : min = -10.00 V, max = 10.00 V
Ewe,I filtering : <None>
Channel : Grounded
Acquisition started on : 04/06/2022 13:48:24
Saved on :
	File : SRDP_2_1_01_srdp5x_cond1p5V_30xpulse-minus1V-read-plus200mV_t-100ms-dt-10-50-100-200-500ms-GISYA-EWE-materials_10_CA_C01.mpr
	Directory : C:\Users\AGH\Desktop\AnJ\2022-04-05-06_ITO_Ni[Me4Benzo]_Cu\
	Host : 192.109.209.128
Device : SP-300 (SN 0552)
Address : USB
EC-Lab for windows v11.20 (software)
Internet server v11.20 (firmware)
Command interpretor v11.20 (firmware)
Electrode material :
Initial state :
Electrolyte :
Comments :
Cable : standard
Electrode surface area : 0.001 cm²
Characteristic mass : 0.001 g
Equivalent Weight : 0.000 g/eq.
Density : 0.000 g/cm3
Ns                  0                   1                   2                   3                   4                   5                   6                   7
Ei (V)              0.000               0.200               0.000               -1.000              0.000               0.000               0.200               0.000
vs.                 Ref                 Ref                 Ref                 Ref                 Ref                 Ref                 Ref                 Ref
ti (h:m:s)          0:00:1.0000         0:00:1.0000         0:00:1.0000         0:00:0.1000         0:00:0.1000         0:00:0.0100         0:00:1.0000         0:00:0.1000
Imax                pass                pass                pass                pass                pass                pass                pass                pass
unit Imax           mA                  mA                  mA                  mA                  mA                  mA                  mA                  mA
Imin                pass                pass                pass                pass                pass                pass                pass                pass
unit Imin           mA                  mA                  mA                  mA                  mA                  mA                  mA                  mA
dQM                 0.000               0.000               0.000               0.000               0.000               0.000               0.000               0.000
unit dQM            mA.h                mA.h                mA.h                mA.h                mA.h                mA.h                mA.h                mA.h
record              I                   I                   I                   I                   I                   I                   I                   I
dI                  0.000               0.000               0.000               0.000               0.000               0.000               0.000               0.000
unit dI             µA                  µA                  µA                  µA                  µA                  µA                  µA                  µA
dQ                  0.000               0.000               0.000               0.000               0.000               0.000               0.000               0.000
unit dQ             mA.h                mA.h                mA.h                mA.h                mA.h                mA.h                mA.h                mA.h
dt (s)              0.5000              0.1000              0.1000              0.0050              0.0050              0.0010              0.1000              0.1000
dta (s)             0.1000              0.1000              0.1000              0.1000              0.1000              0.1000              0.1000              0.1000
E range min (V)     -10.000             -10.000             -10.000             -10.000             -10.000             -10.000             -10.000             -10.000
E range max (V)     10.000              10.000              10.000              10.000              10.000              10.000              10.000              10.000
I Range             100 mA              100 mA              100 mA              100 mA              100 mA              100 mA              100 mA              100 mA
I Range min         Unset               Unset               Unset               Unset               Unset               Unset               Unset               Unset
I Range max         Unset               Unset               Unset               Unset               Unset               Unset               Unset               Unset
I Range init        Unset               Unset               Unset               Unset               Unset               Unset               Unset               Unset
Bandwidth           5                   5                   5                   5                   5                   5                   5                   5
goto Ns'            0                   0                   0                   0                   3                   0                   0                   0
nc cycles           0                   0                   0                   0                   29                  0                   0                   0

Number of loops : 6
Loop 0 from point number 0 to 1308
Loop 1 from point number 1309 to 2617
Loop 2 from point number 2618 to 3926
Loop 3 from point number 3927 to 5235
Loop 4 from point number 5236 to 6544
Loop 5 from point number 6545 to 7853

mode	ox/red	error	control changes	Ns changes	counter inc.	Ns	time/s	control/V	Ewe/V	I/mA	dQ/C	(Q-Qo)/C	Q charge/discharge/mA.h	half cycle	Energy charge/W.h	Energy discharge/W.h	Capacitance charge/µF	Capacitance discharge/µF	Q discharge/mA.h	Q charge/mA.h	Capacity/mA.h	Efficiency/%	cycle number	P/W
2	1	0	0	0	0	0	442.742	2.54262e-05	6.96374e-05	0.0139745	0.0000000E+000	0.0000000E+000	0.000000000000000E+000	0	0.000000000000000E+000	0.000000000000000E+000	0.000000000000000E+000	0.000000000000000E+000	0.000000000000000E+000	0.000000000000000E+000	0.000000000000000E+000	0	0.000000000000000E+000	9.7315e-10
2	0	0	1	0	1	3	446.422	-0.999851	-0.99987	-10.7962	-0.000866994	-0.00183164	-0.000240832	7	2.04206e-14	2.40806e-07	17371.3	2.27277e+08	0.000240832	0.000000000000000E+000	0.000240832	0	3	0.0107948
2	0	0	1	0	1	3	447.217	-0.999851	-0.999874	-9.98192	-0.000758421	-0.00586967	-0.000210673	15	2.07727e-14	2.10647e-07	6713.89	1.52751e+07	0.000210673	0.000000000000000E+000	0.000210673	0	7	0.00998067
2	0	0	1	0	1	3	448.012	-0.999851	-0.999908	-8.95915	-0.000630142	-0.00951167	-0.000175039	23	2.27159e-14	1.75017e-07	19122.4	4.12808e+06	0.000175039	0.000000000000000E+000	0.000175039	0	11	0.00895833
2	0	0	1	0	1	3	448.807	-0.999851	-0.999843	-8.7575	-0.000571043	-0.0129979	-0.000158623	31	2.03046e-14	1.58604e-07	4155.03	7.48478e+07	0.000158623	0.000000000000000E+000	0.000158623	0	15	0.00875613
2	0	0	1	0	1	3	449.602	-0.999851	-0.999863	-8.46992	-0.000510766	-0.0163776	-0.000141879	39	1.01882e-14	1.41865e-07	161079	2.68628e+07	0.000141879	0.000000000000000E+000	0.000141879	0	19	0.00846875
2	0	0	1	0	1	3	450.397	-0.999851	-0.999901	-8.17966	-0.000452	-0.0196696	-0.000125556	47	2.3901e-14	1.25541e-07	66871.5	6.96996e+06	0.000125556	0.000000000000000E+000	0.000125556	0	23	0.00817885
2	0	0	1	0	1	3	451.192	-0.999851	-0.999893	-8.05172	-0.000404365	-0.0228667	-0.000112324	55	1.73953e-14	1.12312e-07	81148.6	1.7667e+07	0.000112324	0.000000000000000E+000	0.000112324	0	27	0.00805086
2	0	0	1	0	0	3	472.263	-0.999851	-0.999977	-10.7637	-0.000111153	0.00216335	-3.08758e-05	63	1.24955e-07	3.08733e-08	1.19208e+07	882972	3.08758e-05	0.000000000000000E+000	3.08758e-05	0	31	0.0107635
2	0	0	1	0	0	3	473.058	-0.999851	-0.99995	-9.77951	-5.08619e-05	-0.00184512	-1.41283e-05	71	2.18099e-14	1.41275e-08	55151.1	303026	1.41283e-05	0.000000000000000E+000	1.41283e-05	0	35	0.00977902
2	0	0	1	1	0	3	473.853	-0.999851	-0.999843	-9.44686	-1.88937e-06	-0.00569577	-5.24774e-07	79	1.32892e-14	5.24692e-10	7371.03	0.000000000000000E+000	5.24774e-07	0.000000000000000E+000	5.24774e-07	0	39	0.00944538
2	1	0	0	0	1	4	474.653	2.54262e-05	5.0557e-05	0.00748197	1.22796e-06	-0.00929728	3.40968e-07	86	1.40487e-14	0.000000000000000E+000	22976	0.000000000000000E+000	0.000000000000000E+000	3.40968e-07	3.40968e-07	0	43	3.78266e-10
2	1	0	0	0	1	4	475.448	2.54262e-05	2.38449e-05	0.0128288	1.16455e-06	-0.0126184	3.23376e-07	94	2.09523e-14	0.000000000000000E+000	43581.2	0.000000000000000E+000	0.000000000000000E+000	3.23376e-07	3.23376e-07	0	47	3.05901e-10
2	1	0	0	0	1	4	476.243	2.54262e-05	8.58081e-06	0.016266	1.10797e-06	-0.0158339	3.07854e-07	102	1.54912e-14	0.000000000000000E+000	6754.07	0.000000000000000E+000	0.000000000000000E+000	3.07854e-07	3.07854e-07	0	51	1.39576e-10
2	1	0	0	0	1	4	477.038	2.54262e-05	7.34534e-05	0.000607476	1.00067e-06	-0.0189746	2.78362e-07	110	2.28673e-14	0.000000000000000E+000	8206.33	0.000000000000000E+000	0.000000000000000E+000	2.78362e-07	2.78362e-07	0	55	4.46212e-11
2	1	0	0	0	1	4	477.833	2.54262e-05	-1.04994e-05	0.0174118	9.05434e-07	-0.0220674	2.51457e-07	118	1.46637e-14	0.000000000000000E+000	21565.6	0.000000000000000E+000	0.000000000000000E+000	2.51457e-07	2.51457e-07	0	59	1.82813e-10
2	1	0	0	0	0	4	498.904	2.54262e-05	6.20053e-05	0.016648	5.19002e-07	0.00124986	1.44161e-07	126	5.25236e-15	0.000000000000000E+000	19428.5	0.000000000000000E+000	0.000000000000000E+000	1.44161e-07	1.44161e-07	0	63	1.03226e-09
2	1	0	0	0	0	4	499.699	2.54262e-05	9.25336e-05	0.0170299	4.36679e-07	-0.00309661	1.21266e-07	134	1.04047e-14	0.000000000000000E+000	3813.36	0.000000000000000E+000	0.000000000000000E+000	1.21266e-07	1.21266e-07	0	67	1.57584e-09
2	1	0	0	0	0	4	500.494	2.54262e-05	0.000126878	0.00824579	3.61383e-07	-0.00691874	1.00376e-07	142	3.58804e-16	0.000000000000000E+000	4983.85	0.000000000000000E+000	0.000000000000000E+000	1.00376e-07	1.00376e-07	0	71	1.04621e-09
2	1	0	0	0	0	4	501.289	2.54262e-05	6.58213e-05	0.00939155	2.89677e-07	-0.0103128	8.04559e-08	150	1.1139e-14	0.000000000000000E+000	2617.28	0.000000000000000E+000	0.000000000000000E+000	8.04559e-08	8.04559e-08	0	75	6.18164e-10
2	1	0	0	0	0	4	502.084	2.54262e-05	8.87176e-05	0.0170299	2.29505e-07	-0.0135644	6.38991e-08	158	3.53165e-15	0.000000000000000E+000	3014.08	0.000000000000000E+000	0.000000000000000E+000	6.38991e-08	6.38991e-08	0	79	1.51085e-09
2	1	0	0	0	0	4	502.879	2.54262e-05	9.25336e-05	0.00862771	1.76895e-07	-0.0167185	4.91531e-08	166	2.98654e-15	0.000000000000000E+000	2898.15	0.000000000000000E+000	0.000000000000000E+000	4.91531e-08	4.91531e-08	0	83	7.98353e-10
2	1	0	0	0	0	4	503.674	2.54262e-05	0.00013451	0.00328088	1.00835e-07	-0.0198392	2.79397e-08	174	2.7907e-15	0.000000000000000E+000	1198.09	0.000000000000000E+000	0.000000000000000E+000	2.79397e-08	2.79397e-08	0	87	4.41311e-10
2	1	0	0	0	0	4	504.469	2.54262e-05	0.00015359	0.00862771	6.90012e-08	-0.0229405	1.91439e-08	182	2.63822e-15	0.000000000000000E+000	354.119	0.000000000000000E+000	0.000000000000000E+000	1.91439e-08	1.91439e-08	0	91	1.32513e-09
2	0	0	1	0	1	3	525.545	-0.999851	-0.999836	-9.44953	-0.000670088	0.000508928	-0.000186136	189	1.76144e-14	1.8611e-07	11505.1	1.95177e+07	0.000186136	0.000000000000000E+000	0.000186136	0	94	0.00944798
2	0	0	1	0	1	3	526.34	-0.999851	-0.999916	-8.91752	-0.000582048	-0.0030842	-0.00016168	197	2.37754e-14	1.61657e-07	5148.26	1.2715e+07	0.00016168	0.000000000000000E+000	0.00016168	0	98	0.00891677
2	0	0	1	0	1	3	527.135	-0.999851	-0.999855	-8.49894	-0.000512952	-0.00660993	-0.000142487	205	2.78156e-14	1.42469e-07	67139.5	8.96449e+06	0.000142487	0.000000000000000E+000	0.000142487	0	102	0.00849771
2	0	0	1	0	1	3	527.93	-0.999851	-0.999805	-8.38666	-0.000463541	-0.00993465	-0.000128761	213	2.05549e-14	1.28743e-07	7907.38	6.74495e+06	0.000128761	0.000000000000000E+000	0.000128761	0	106	0.00838503
2	0	0	1	0	1	3	528.725	-0.999851	-0.999836	-8.33166	-0.000417898	-0.0132308	-0.000116083	221	2.10117e-14	1.16067e-07	11287.5	6.43817e+06	0.000116083	0.000000000000000E+000	0.000116083	0	110	0.0083303
2	0	0	1	0	1	3	529.52	-0.999851	-0.99987	-8.27361	-0.000373063	-0.0165022	-0.000103629	229	2.20713e-14	1.03621e-07	7461.1	1.08474e+07	0.000103629	0.000000000000000E+000	0.000103629	0	114	0.00827254
2	0	0	1	0	1	3	530.315	-0.999851	-0.99979	-8.24	-0.000330937	-0.0197536	-9.19267e-05	237	2.07928e-14	9.19171e-08	12573.7	3.94331e+06	9.19267e-05	0.000000000000000E+000	9.19267e-05	0	118	0.00823827
2	0	0	1	0	1	3	531.11	-0.999851	-0.999931	-8.18004	-0.000288577	-0.0229938	-8.016e-05	245	1.7347e-14	8.01465e-08	23692.1	1.26081e+07	8.016e-05	0.000000000000000E+000	8.016e-05	0	122	0.00817948
2	1	0	0	0	1	4	552.185	2.54262e-05	1.62128e-05	0.0177937	1.27432e-06	9.21787e-05	3.53979e-07	252	2.39047e-14	0.000000000000000E+000	10119.4	0.000000000000000E+000	0.000000000000000E+000	3.53979e-07	3.53979e-07	0	126	2.88485e-10
2	1	0	0	0	1	4	552.981	2.54262e-05	0.000165038	0.00480855	1.19159e-06	-0.0045753	3.31008e-07	260	2.85823e-14	0.000000000000000E+000	12010.3	0.000000000000000E+000	0.000000000000000E+000	3.31008e-07	3.31008e-07	0	130	7.93595e-10
2	1	0	0	0	1	4	553.776	2.54262e-05	0.000119246	0.00786389	1.07909e-06	-0.0091509	2.99575e-07	268	1.63856e-14	0.000000000000000E+000	8074.73	0.000000000000000E+000	0.000000000000000E+000	2.99575e-07	2.99575e-07	0	134	9.37737e-10
2	1	0	0	0	1	4	554.571	2.54262e-05	6.96372e-05	0.0147384	1.02496e-06	-0.0134913	2.84571e-07	276	1.29003e-14	0.000000000000000E+000	5836.09	0.000000000000000E+000	0.000000000000000E+000	2.84571e-07	2.84571e-07	0	138	1.02634e-09
2	1	0	0	0	1	4	555.366	2.54262e-05	1.23966e-05	0.0132107	8.8947e-07	-0.0171129	2.468e-07	284	1.48745e-14	0.000000000000000E+000	10583.1	0.000000000000000E+000	0.000000000000000E+000	2.468e-07	2.468e-07	0	142	1.63768e-10
2	1	0	0	0	1	4	556.161	2.54262e-05	9.48548e-07	0.00862771	8.20208e-07	-0.0203161	2.27657e-07	292	1.70657e-14	0.000000000000000E+000	12633.4	0.000000000000000E+000	0.000000000000000E+000	2.27657e-07	2.27657e-07	0	146	8.18381e-12
2	1	0	0	0	1	4	556.956	2.54262e-05	2.76609e-05	0.00442664	7.95707e-07	-0.0233295	2.21448e-07	300	1.17822e-14	0.000000000000000E+000	9948.12	0.000000000000000E+000	0.000000000000000E+000	2.21448e-07	2.21448e-07	0	150	1.22445e-10
2	1	0	0	0	1	4	557.751	2.54262e-05	6.58213e-05	0.0204671	7.03149e-07	-0.0262996	1.95578e-07	308	1.28337e-14	0.000000000000000E+000	23063.2	0.000000000000000E+000	0.000000000000000E+000	1.95578e-07	1.95578e-07	0	154	1.34717e-09
2	1	0	0	0	0	4	578.821	2.54262e-05	2.00288e-05	0.0143565	2.83872e-07	-0.00108291	7.88714e-08	316	1.16174e-15	0.000000000000000E+000	10629.5	0.000000000000000E+000	0.000000000000000E+000	7.88714e-08	7.88714e-08	0	158	2.87542e-10
2	1	0	0	0	0	4	579.616	2.54262e-05	-1.81317e-05	0.0109192	2.2179e-07	-0.00564787	6.15708e-08	324	1.87043e-15	0.000000000000000E+000	14521.2	0.000000000000000E+000	0.000000000000000E+000	6.15708e-08	6.15708e-08	0	162	1.97983e-10
2	1	0	0	0	0	4	580.411	2.54262e-05	5.81893e-05	0.00900962	1.77048e-07	-0.0102058	4.91531e-08	332	3.85332e-15	0.000000000000000E+000	2318.52	0.000000000000000E+000	0.000000000000000E+000	4.91531e-08	4.91531e-08	0	166	5.24264e-10
2	1	0	0	0	0	4	581.206	2.54262e-05	-2.86743e-06	0.0174118	1.33298e-07	-0.014723	3.69942e-08	340	8.65338e-16	0.000000000000000E+000	1454.16	0.000000000000000E+000	0.000000000000000E+000	3.69942e-08	3.69942e-08	0	170	4.99271e-11
2	1	0	0	0	0	4	582.001	2.54262e-05	6.96372e-05	0.0105373	6.60987e-08	-0.0191181	1.86265e-08	348	1.26156e-15	0.000000000000000E+000	976.221	0.000000000000000E+000	0.000000000000000E+000	1.86265e-08	1.86265e-08	0	174	7.33788e-10
2	1	0	0	1	0	4	582.796	2.54262e-05	-7.53722e-05	0.0170299	3.40598e-09	-0.0225313	1.0348e-09	356	-7.79954e-17	0.000000000000000E+000	0.000000000000000E+000	0.000000000000000E+000	0.000000000000000E+000	1.0348e-09	1.0348e-09	0	178	1.28358e-09
2	0	0	1	0	0	3	583.596	-0.999851	-0.999939	-7.2875	-0.000729689	-0.0254817	-0.000202691	363	1.59152e-14	2.02669e-07	10376.8	7.97015e+06	0.000202691	0.000000000000000E+000	0.000202691	0	181	0.00728706
2	1	0	1	0	0	6	585.106	0.19994	0.200034	1.29645	0.00103307	-0.0266139	0.000287299	370	5.73983e-08	0.000000000000000E+000	5170.43	0.000000000000000E+000	0.000000000000000E+000	0.000287299	0.000287299	0	185	0.000259334
2	1	0	0	0	0	7	585.406	2.54262e-05	-1.04995e-05	0.0147384	1.0519e-06	-0.0263544	0.000359388	370	7.1763e-08	0.000000000000000E+000	1.6952e+08	0.000000000000000E+000	0.000000000000000E+000	0.000359388	0.000359388	0	185	1.54746e-10